$\lambda$ (nm)  $n$  $k$
241.143356	0.683901	2.010042	
242.734009	0.751640	2.074174	
244.324661	0.823329	2.132393	
245.915359	0.898189	2.184478	
247.506058	0.975447	2.230325	
249.096802	1.054363	2.269950	
250.687546	1.134244	2.303461	
252.278320	1.214457	2.331053	
253.869110	1.294439	2.352986	
255.459930	1.373700	2.369570	
257.050751	1.451821	2.381150	
258.641602	1.528458	2.388088	
260.232483	1.603333	2.390757	
261.823364	1.676230	2.389526	
263.414276	1.746987	2.384753	
265.005188	1.815488	2.376781	
266.596130	1.881659	2.365935	
268.187103	1.945461	2.352513	
269.778076	2.006877	2.336794	
271.369080	2.065918	2.319031	
272.960083	2.122606	2.299456	
274.551117	2.176979	2.278277	
276.142151	2.229082	2.255683	
277.733215	2.278967	2.231845	
279.324310	2.326691	2.206916	
280.915405	2.372313	2.181034	
282.506500	2.415891	2.154325	
284.097626	2.457489	2.126901	
285.688782	2.497165	2.098865	
287.279907	2.534977	2.070310	
288.871063	2.570984	2.041320	
290.462250	2.605242	2.011973	
292.053436	2.637807	1.982340	
293.644653	2.668730	1.952487	
295.235870	2.698065	1.922473	
296.827087	2.725860	1.892354	
298.418335	2.752165	1.862183	
300.009583	2.777026	1.832007	
301.600861	2.800490	1.801871	
303.192139	2.822601	1.771817	
304.783417	2.843403	1.741885	
306.374725	2.862937	1.712112	
307.966034	2.881246	1.682533	
309.557373	2.898370	1.653180	
311.148682	2.914347	1.624085	
312.740051	2.929218	1.595276	
314.331360	2.943020	1.566784	
315.922760	2.955792	1.538632	
317.514099	2.967571	1.510848	
319.105499	2.978393	1.483454	
320.696869	2.988296	1.456474	
322.288269	2.997315	1.429929	
323.879669	3.005488	1.403840	
325.471069	3.012850	1.378226	
327.062500	3.019439	1.353105	
328.653900	3.025290	1.328496	
330.245331	3.030441	1.304413	
331.836792	3.034929	1.280873	
333.428223	3.038790	1.257889	
335.019684	3.042064	1.235474	
336.611145	3.044788	1.213639	
338.202576	3.047002	1.192394	
339.794037	3.048743	1.171747	
341.385529	3.050054	1.151704	
342.976990	3.050972	1.132271	
344.568481	3.051540	1.113450	
346.159973	3.051798	1.095242	
347.751434	3.051787	1.077645	
349.342957	3.051549	1.060654	
350.934418	3.051125	1.044264	
352.525940	3.050556	1.028465	
354.117401	3.049883	1.013245	
355.708923	3.049144	0.998590	
357.300415	3.048378	0.984481	
358.891907	3.047623	0.970898	
360.483429	3.046915	0.957818	
362.074921	3.046287	0.945214	
363.666443	3.045770	0.933057	
365.257965	3.045395	0.921317	
366.849457	3.045186	0.909959	
368.440979	3.045166	0.898947	
370.032471	3.045356	0.888246	
371.623962	3.045772	0.877814	
373.215485	3.046424	0.867613	
374.806976	3.047323	0.857602	
376.398499	3.048472	0.847740	
377.989990	3.049871	0.837987	
379.581482	3.051517	0.828302	
381.173004	3.053402	0.818647	
382.764465	3.055515	0.808984	
384.355988	3.057841	0.799278	
385.947449	3.060362	0.789495	
387.538971	3.063057	0.779604	
389.130432	3.065902	0.769578	
390.721924	3.068870	0.759391	
392.313416	3.071934	0.749021	
393.904846	3.075063	0.738450	
395.496338	3.078226	0.727663	
397.087799	3.081391	0.716649	
398.679260	3.084527	0.705400	
400.270691	3.087600	0.693912	
401.862122	3.090578	0.682184	
403.453583	3.093430	0.670218	
405.045013	3.096124	0.658020	
406.636414	3.098633	0.645599	
408.227844	3.100928	0.632965	
409.819275	3.102982	0.620133	
411.410706	3.104772	0.607118	
413.002045	3.106275	0.593939	
414.593445	3.107471	0.580616	
416.184814	3.108343	0.567169	
417.776215	3.108876	0.553622	
419.367584	3.109055	0.539998	
420.958923	3.108872	0.526322	
422.550232	3.108318	0.512617	
424.141602	3.107387	0.498910	
425.732910	3.106076	0.485225	
427.324219	3.104384	0.471586	
428.915527	3.102311	0.458019	
430.506836	3.099861	0.444547	
432.098083	3.097039	0.431193	
433.689362	3.093852	0.417980	
435.280609	3.090307	0.404929	
436.871887	3.086416	0.392060	
438.463135	3.082189	0.379391	
440.054352	3.077638	0.366942	
441.645569	3.072779	0.354728	
443.236725	3.067625	0.342765	
444.827942	3.062191	0.331065	
446.419098	3.056494	0.319641	
448.010254	3.050551	0.308505	
449.601379	3.044379	0.297665	
451.192535	3.037995	0.287129	
452.783600	3.031416	0.276906	
454.374695	3.024661	0.266997	
455.965759	3.017746	0.257410	
457.556824	3.010689	0.248146	
459.147888	3.003508	0.239206	
460.738922	2.996219	0.230591	
462.329987	2.988837	0.222300	
463.920959	2.981381	0.214333	
465.511963	2.973865	0.206685	
467.102875	2.966303	0.199353	
468.693848	2.958710	0.192334	
470.284760	2.951101	0.185622	
471.875671	2.943487	0.179211	
473.466614	2.935881	0.173095	
475.057465	2.928295	0.167267	
476.648346	2.920740	0.161720	
478.239166	2.913225	0.156447	
479.829987	2.905761	0.151438	
481.420746	2.898356	0.146687	
483.011566	2.891017	0.142183	
484.602295	2.883754	0.137920	
486.193054	2.876570	0.133887	
487.783752	2.869475	0.130076	
489.374451	2.862471	0.126478	
490.965149	2.855565	0.123085	
492.555756	2.848759	0.119887	
494.146393	2.842059	0.116876	
495.737000	2.835467	0.114042	
497.327576	2.828985	0.111379	
498.918152	2.822616	0.108877	
500.508698	2.816361	0.106528	
502.099213	2.810221	0.104325	
503.689697	2.804198	0.102259	
505.280182	2.798292	0.100324	
506.870605	2.792502	0.098512	
508.461029	2.786829	0.096816	
510.051422	2.781273	0.095229	
511.641785	2.775831	0.093746	
513.232117	2.770505	0.092360	
514.822449	2.765292	0.091065	
516.412720	2.760191	0.089855	
518.003052	2.755200	0.088725	
519.593262	2.750319	0.087670	
521.183472	2.745545	0.086686	
522.773682	2.740876	0.085767	
524.363831	2.736311	0.084909	
525.953979	2.731847	0.084109	
527.544067	2.727482	0.083361	
529.134155	2.723214	0.082663	
530.724182	2.719042	0.082012	
532.314209	2.714962	0.081403	
533.904175	2.710972	0.080833	
535.494141	2.707072	0.080301	
537.084106	2.703257	0.079803	
538.673950	2.699526	0.079336	
540.263855	2.695876	0.078899	
541.853699	2.692307	0.078489	
543.443481	2.688815	0.078104	
545.033325	2.685398	0.077742	
546.623047	2.682054	0.077401	
548.212769	2.678782	0.077080	
549.802429	2.675578	0.076778	
551.392090	2.672442	0.076492	
552.981689	2.669371	0.076221	
554.571289	2.666364	0.075964	
556.160828	2.663418	0.075721	
557.750366	2.660532	0.075489	
559.339844	2.657705	0.075268	
560.929321	2.654933	0.075058	
562.518677	2.652217	0.074856	
564.108093	2.649554	0.074663	
565.697449	2.646942	0.074478	
567.286743	2.644381	0.074300	
568.876099	2.641869	0.074128	
570.465271	2.639404	0.073962	
572.054565	2.636985	0.073802	
573.643677	2.634610	0.073646	
575.232788	2.632280	0.073495	
576.821899	2.629991	0.073349	
578.411011	2.627744	0.073205	
580.000061	2.625536	0.073065	
581.588989	2.623368	0.072929	
583.177979	2.621237	0.072795	
584.766907	2.619143	0.072664	
586.355774	2.617085	0.072535	
587.944580	2.615062	0.072408	
589.533386	2.613073	0.072283	
591.122192	2.611116	0.072159	
592.710876	2.609192	0.072038	
594.299561	2.607299	0.071918	
595.888245	2.605437	0.071799	
597.476807	2.603604	0.071681	
599.065369	2.601801	0.071564	
600.653931	2.600025	0.071448	
602.242371	2.598278	0.071334	
603.830811	2.596557	0.071220	
605.419189	2.594862	0.071106	
607.007568	2.593194	0.070994	
608.595886	2.591550	0.070881	
610.184143	2.589930	0.070770	
611.772339	2.588335	0.070659	
613.360535	2.586763	0.070548	
614.948730	2.585213	0.070438	
616.536804	2.583686	0.070328	
618.124878	2.582181	0.070219	
619.712891	2.580696	0.070109	
621.300842	2.579233	0.070000	
622.888794	2.577790	0.069892	
624.476685	2.576367	0.069783	
626.064453	2.574964	0.069675	
627.652222	2.573579	0.069567	
629.239990	2.572213	0.069459	
630.827698	2.570866	0.069352	
632.415344	2.569536	0.069244	
634.002930	2.568224	0.069137	
635.590515	2.566930	0.069030	
637.178040	2.565652	0.068923	
638.765503	2.564390	0.068816	
640.352905	2.563145	0.068709	
641.940247	2.561915	0.068603	
643.527588	2.560702	0.068496	
645.114868	2.559503	0.068390	
646.702026	2.558319	0.068284	
648.289246	2.557151	0.068178	
649.876343	2.555996	0.068072	
651.463440	2.554856	0.067966	
653.050415	2.553729	0.067860	
654.637390	2.552616	0.067755	
656.224365	2.551517	0.067649	
657.811218	2.550431	0.067544	
659.398071	2.549357	0.067439	
660.984802	2.548296	0.067333	
662.571533	2.547248	0.067228	
664.158203	2.546212	0.067124	
665.744812	2.545188	0.067019	
667.331360	2.544176	0.066914	
668.917847	2.543175	0.066810	
670.504333	2.542186	0.066706	
672.090698	2.541208	0.066601	
673.677124	2.540241	0.066497	
675.263367	2.539285	0.066394	
676.849609	2.538339	0.066290	
678.435791	2.537405	0.066186	
680.021912	2.536480	0.066083	
681.608032	2.535565	0.065980	
683.194031	2.534661	0.065876	
684.779968	2.533766	0.065773	
686.365906	2.532881	0.065671	
687.951782	2.532006	0.065568	
689.537537	2.531140	0.065466	
691.123291	2.530283	0.065363	
692.708984	2.529435	0.065261	
694.294617	2.528596	0.065159	
695.880188	2.527766	0.065057	
697.465698	2.526945	0.064956	
699.051147	2.526132	0.064854	
700.636597	2.525328	0.064753	
702.221863	2.524532	0.064652	
703.807190	2.523744	0.064551	
705.392395	2.522964	0.064450	
706.977539	2.522192	0.064349	
708.562622	2.521428	0.064249	
710.147705	2.520671	0.064149	
711.732666	2.519922	0.064049	
713.317627	2.519181	0.063949	
714.902466	2.518447	0.063849	
716.487244	2.517720	0.063750	
718.072021	2.517000	0.063650	
719.656677	2.516288	0.063551	
721.241333	2.515582	0.063452	
722.825806	2.514883	0.063354	
724.410339	2.514191	0.063255	
725.994751	2.513506	0.063157	
727.579163	2.512827	0.063059	
729.163452	2.512154	0.062961	
730.747681	2.511488	0.062863	
732.331848	2.510829	0.062766	
733.915955	2.510175	0.062668	
735.500000	2.509528	0.062571	
737.083984	2.508887	0.062474	
738.667847	2.508252	0.062377	
740.251770	2.507622	0.062281	
741.835571	2.506999	0.062185	
743.419250	2.506381	0.062089	
745.002869	2.505769	0.061993	
746.586487	2.505162	0.061897	
748.170044	2.504561	0.061802	
749.753479	2.503966	0.061706	
751.336853	2.503376	0.061611	
752.920166	2.502791	0.061516	
754.503418	2.502211	0.061422	
756.086609	2.501637	0.061327	
757.669739	2.501067	0.061233	
759.252808	2.500503	0.061139	
760.835754	2.499944	0.061045	
762.418640	2.499389	0.060952	
764.001465	2.498840	0.060858	
765.584290	2.498295	0.060765	
767.166931	2.497755	0.060672	
768.749573	2.497220	0.060580	
770.332153	2.496689	0.060487	
771.914673	2.496163	0.060395	
773.497009	2.495641	0.060303	
775.079407	2.495124	0.060211	
776.661682	2.494612	0.060119	
778.243835	2.494103	0.060028	
779.825989	2.493599	0.059936	
781.408081	2.493099	0.059845	
782.990051	2.492603	0.059755	
784.571960	2.492112	0.059664	
786.153809	2.491624	0.059574	
787.735535	2.491141	0.059483	
789.317261	2.490662	0.059394	
790.898865	2.490186	0.059304	
792.480408	2.489715	0.059214	
794.061890	2.489247	0.059125	
795.643250	2.488783	0.059036	
797.224548	2.488323	0.058947	
798.805786	2.487867	0.058858	
800.387024	2.487414	0.058770	
801.968079	2.486965	0.058682	
803.549072	2.486520	0.058594	
805.130005	2.486078	0.058506	
806.710876	2.485640	0.058418	
808.291626	2.485205	0.058331	
809.872375	2.484774	0.058244	
811.453003	2.484346	0.058157	
813.033569	2.483922	0.058070	
814.614014	2.483500	0.057983	
816.194458	2.483083	0.057897	
817.774780	2.482668	0.057811	
819.354980	2.482257	0.057725	
820.935181	2.481848	0.057639	
822.515259	2.481443	0.057554	
824.095215	2.481041	0.057469	
825.675110	2.480643	0.057384	
827.255005	2.480247	0.057299	
828.834656	2.479854	0.057214	
830.414368	2.479464	0.057130	
831.993958	2.479078	0.057045	
833.573425	2.478694	0.056961	
835.152954	2.478313	0.056878	
836.732239	2.477935	0.056794	
838.311523	2.477559	0.056711	
839.890747	2.477187	0.056627	
841.469849	2.476817	0.056544	
843.048828	2.476450	0.056462	
844.627747	2.476086	0.056379	
846.206543	2.475724	0.056297	
847.785339	2.475366	0.056215	
849.364075	2.475009	0.056133	
850.942566	2.474656	0.056051	
852.521118	2.474305	0.055969	
854.099487	2.473957	0.055888	
855.677856	2.473611	0.055807	
857.256165	2.473267	0.055726	
858.834290	2.472926	0.055645	
860.412415	2.472588	0.055565	
861.990356	2.472252	0.055485	
863.568237	2.471918	0.055404	
865.146118	2.471587	0.055325	
866.723816	2.471258	0.055245	
868.301453	2.470932	0.055165	
869.879028	2.470607	0.055086	
871.456421	2.470285	0.055007	
873.033875	2.469966	0.054928	
874.611145	2.469648	0.054849	
876.188354	2.469333	0.054771	
877.765442	2.469020	0.054693	
879.342468	2.468709	0.054614	
880.919434	2.468400	0.054536	
882.496277	2.468094	0.054459	
884.073059	2.467790	0.054381	
885.649719	2.467487	0.054304	
887.226257	2.467187	0.054227	
888.802734	2.466889	0.054150	
890.379089	2.466593	0.054073	
891.955383	2.466299	0.053997	
893.531555	2.466007	0.053920	
895.107727	2.465717	0.053844	
896.683716	2.465429	0.053768	
898.259644	2.465142	0.053692	
899.835449	2.464858	0.053617	
901.411255	2.464576	0.053541	
902.986816	2.464295	0.053466	
904.562378	2.464017	0.053391	
906.137817	2.463740	0.053316	
907.713196	2.463465	0.053242	
909.288452	2.463192	0.053167	
910.863647	2.462921	0.053093	
912.438660	2.462651	0.053019	
914.013672	2.462384	0.052945	
915.588562	2.462118	0.052871	
917.163391	2.461854	0.052798	
918.737976	2.461591	0.052725	
920.312622	2.461330	0.052651	
921.887085	2.461071	0.052578	
923.461548	2.460814	0.052506	
925.035828	2.460558	0.052433	
926.609985	2.460304	0.052361	
928.184082	2.460052	0.052288	
929.758118	2.459801	0.052216	
931.332031	2.459552	0.052145	
932.905762	2.459304	0.052073	
934.479492	2.459058	0.052001	
936.053101	2.458814	0.051930	
937.626648	2.458571	0.051859	
939.200012	2.458329	0.051788	
940.773315	2.458090	0.051717	
942.346497	2.457851	0.051647	
943.919617	2.457614	0.051576	
945.492554	2.457379	0.051506	
947.065552	2.457145	0.051436	
948.638306	2.456913	0.051366	
950.211060	2.456682	0.051296	
951.783569	2.456452	0.051227	
953.356079	2.456224	0.051157	
954.928528	2.455997	0.051088	
956.500793	2.455772	0.051019	
958.072937	2.455548	0.050950	
959.645020	2.455326	0.050882	
961.216980	2.455105	0.050813	
962.788879	2.454885	0.050745	
964.360657	2.454666	0.050677	
965.932251	2.454449	0.050609	
967.503784	2.454233	0.050541	
969.075317	2.454019	0.050473	
970.646606	2.453805	0.050406	
972.217896	2.453594	0.050338	
973.788940	2.453383	0.050271	
975.359985	2.453174	0.050204	
976.930847	2.452965	0.050138	
978.501648	2.452759	0.050071	
980.072388	2.452553	0.050004	
981.642944	2.452348	0.049938	
983.213501	2.452145	0.049872	
984.783813	2.451943	0.049806	
986.354126	2.451742	0.049740	
987.924194	2.451543	0.049675	
989.494324	2.451344	0.049609	
991.064270	2.451147	0.049544	
992.634094	2.450951	0.049479	
994.203796	2.450756	0.049414	
995.773315	2.450562	0.049349	
997.342896	2.450369	0.049284	
998.912292	2.450178	0.049220	
1012.271790	2.448591	0.048677	
1015.750671	2.448189	0.048537	
1019.227905	2.447794	0.048398	
1022.703796	2.447403	0.048260	
1026.178101	2.447017	0.048123	
1029.650879	2.446636	0.047987	
1033.122314	2.446260	0.047851	
1036.592285	2.445889	0.047716	
1040.060791	2.445522	0.047582	
1043.527832	2.445160	0.047449	
1046.993530	2.444802	0.047316	
1050.457886	2.444448	0.047184	
1053.920776	2.444099	0.047053	
1057.382446	2.443754	0.046923	
1060.842651	2.443413	0.046793	
1064.301514	2.443077	0.046664	
1067.759155	2.442744	0.046536	
1071.215576	2.442415	0.046408	
1074.670532	2.442091	0.046281	
1078.124268	2.441770	0.046155	
1081.576904	2.441453	0.046030	
1085.028076	2.441139	0.045905	
1088.478149	2.440829	0.045781	
1091.927002	2.440523	0.045657	
1095.374634	2.440220	0.045535	
1098.821045	2.439921	0.045413	
1102.266357	2.439625	0.045291	
1105.710571	2.439333	0.045170	
1109.153564	2.439044	0.045050	
1112.595459	2.438758	0.044931	
1116.036133	2.438475	0.044812	
1119.475830	2.438195	0.044694	
1122.914429	2.437919	0.044576	
1126.352051	2.437645	0.044459	
1129.788452	2.437375	0.044343	
1133.223877	2.437108	0.044227	
1136.658447	2.436843	0.044112	
1140.091919	2.436581	0.043997	
1143.524292	2.436322	0.043883	
1146.955811	2.436066	0.043770	
1150.386230	2.435813	0.043657	
1153.815796	2.435563	0.043545	
1157.244385	2.435315	0.043434	
1160.672119	2.435069	0.043323	
1164.098999	2.434827	0.043212	
1167.524902	2.434586	0.043102	
1170.949951	2.434349	0.042993	
1174.374146	2.434114	0.042884	
1177.797485	2.433881	0.042776	
1181.219971	2.433650	0.042668	
1184.641724	2.433422	0.042561	
1188.062622	2.433197	0.042454	
1191.482666	2.432973	0.042348	
1194.902100	2.432752	0.042243	
1198.320557	2.432533	0.042138	
1201.738525	2.432317	0.042033	
1205.155518	2.432102	0.041929	
1208.572021	2.431890	0.041826	
1211.987671	2.431680	0.041723	
1215.402710	2.431472	0.041621	
1218.817139	2.431265	0.041519	
1222.230713	2.431061	0.041417	
1225.643799	2.430859	0.041316	
1229.056396	2.430659	0.041216	
1232.468140	2.430461	0.041116	
1235.879395	2.430265	0.041016	
1239.290039	2.430070	0.040917	
1242.700073	2.429878	0.040819	
1246.109619	2.429687	0.040721	
1249.518677	2.429498	0.040623	
1252.927002	2.429312	0.040526	
1256.335083	2.429126	0.040429	
1259.742432	2.428943	0.040333	
1263.149536	2.428761	0.040237	
1266.556030	2.428581	0.040142	
1269.962158	2.428402	0.040047	
1273.367798	2.428226	0.039953	
1276.772949	2.428051	0.039859	
1280.177856	2.427877	0.039765	
1283.582275	2.427705	0.039672	
1286.986206	2.427535	0.039580	
1290.389893	2.427366	0.039487	
1293.793213	2.427199	0.039396	
1297.196289	2.427033	0.039304	
1300.598999	2.426869	0.039213	
1304.001343	2.426706	0.039123	
1307.403564	2.426544	0.039032	
1310.805298	2.426384	0.038943	
1314.206787	2.426226	0.038853	
1317.608154	2.426069	0.038764	
1321.009277	2.425913	0.038676	
1324.410156	2.425759	0.038588	
1327.810791	2.425606	0.038500	
1331.211304	2.425454	0.038413	
1334.611572	2.425304	0.038326	
1338.011719	2.425155	0.038239	
1341.411865	2.425007	0.038153	
1344.811646	2.424861	0.038067	
1348.211426	2.424716	0.037982	
1351.611084	2.424572	0.037897	
1355.010742	2.424429	0.037812	
1358.410278	2.424287	0.037728	
1361.809692	2.424147	0.037644	
1365.209106	2.424008	0.037560	
1368.608521	2.423870	0.037477	
1372.007935	2.423733	0.037394	
1375.407349	2.423597	0.037311	
1378.806763	2.423463	0.037229	
1382.206177	2.423329	0.037147	
1385.605713	2.423197	0.037066	
1389.005127	2.423065	0.036985	
1392.404785	2.422935	0.036904	
1395.804443	2.422806	0.036824	
1399.204346	2.422678	0.036744	
1402.604248	2.422551	0.036664	
1406.004395	2.422425	0.036584	
1409.404541	2.422300	0.036505	
1412.804932	2.422176	0.036427	
1416.205566	2.422053	0.036348	
1419.606323	2.421931	0.036270	
1423.007324	2.421810	0.036192	
1426.408447	2.421690	0.036115	
1429.809937	2.421571	0.036038	
1433.211670	2.421452	0.035961	
1436.613525	2.421335	0.035884	
1440.015869	2.421219	0.035808	
1443.418335	2.421103	0.035732	
1446.821167	2.420989	0.035656	
1450.224365	2.420875	0.035581	
1453.627930	2.420762	0.035506	
1457.031738	2.420650	0.035431	
1460.436035	2.420539	0.035357	
1463.840576	2.420429	0.035283	
1467.245605	2.420320	0.035209	
1470.651123	2.420211	0.035136	
1474.056885	2.420103	0.035062	
1477.463135	2.419997	0.034990	
1480.869873	2.419890	0.034917	
1484.277100	2.419785	0.034845	
1487.684814	2.419681	0.034772	
1491.093018	2.419577	0.034701	
1494.501831	2.419474	0.034629	
1497.911133	2.419372	0.034558	
1501.320923	2.419270	0.034487	
1504.731201	2.419169	0.034416	
1508.142212	2.419070	0.034346	
1511.553711	2.418970	0.034276	
1514.965820	2.418872	0.034206	
1518.378662	2.418774	0.034136	
1521.791992	2.418677	0.034067	
1525.205933	2.418581	0.033998	
1528.620605	2.418485	0.033929	
1532.036011	2.418390	0.033860	
1535.452026	2.418296	0.033792	
1538.868896	2.418202	0.033724	
1542.286377	2.418109	0.033656	
1545.704468	2.418017	0.033589	
1549.123413	2.417925	0.033521	
1552.543213	2.417834	0.033454	
1555.963623	2.417744	0.033388	
1559.385010	2.417654	0.033321	
1562.807007	2.417565	0.033255	
1566.229980	2.417476	0.033189	
1569.653687	2.417389	0.033123	
1573.078369	2.417301	0.033057	
1576.503784	2.417215	0.032992	
1579.930176	2.417129	0.032927	
1583.357422	2.417043	0.032862	
1586.785645	2.416958	0.032797	
1590.214600	2.416874	0.032733	
1593.644775	2.416790	0.032669	
1597.075684	2.416707	0.032605	
1600.507568	2.416625	0.032541	
1603.940674	2.416543	0.032477	
1607.374512	2.416461	0.032414	
1610.809448	2.416380	0.032351	
1614.245361	2.416300	0.032288	
1617.682373	2.416220	0.032226	
1621.120483	2.416141	0.032163	
1624.559692	2.416062	0.032101	
1627.999756	2.415984	0.032039	
1631.441162	2.415906	0.031977	
1634.883545	2.415829	0.031916	
1638.327148	2.415752	0.031855	
1641.771851	2.415676	0.031794	
1645.217773	2.415600	0.031733	
1648.664795	2.415525	0.031672	
1652.113037	2.415450	0.031612	
1655.562500	2.415376	0.031551	
1659.013062	2.415302	0.031491	
1662.465088	2.415229	0.031431	
1665.918213	2.415156	0.031372	
1669.372437	2.415084	0.031312	
1672.828125	2.415012	0.031253	
1676.285156	2.414941	0.031194	
1679.743408	2.414870	0.031135	
1683.202881	2.414799	0.031076	
1686.663818	2.414729	0.031018	